# Lines beginning with `#' are comments and are ignored.
# Blank lines are significant: do not add or remove!
# _database_code_amcsd 0009325
#
# sg, abc, angles.
227b	35.1363398 35.1363398 35.1363398    90 90 90
# ctl, extra.
0.25 0.75 0.875	0.5 1.0
# limits.
--

# rad/asf, n, limits, comb.
# rads: (1.6 1) -> (1.088 1.26).
Zr4+	96	--	--
# zooms.
1.6:0-0
# comb, bound.
#0@c1	0	0	0.14784
#1@e1	0.30624	0	0.25

# 2theta, fwhm, hkl, mult, val.
25.59	0.2	0 1 2	6	61.91
35.17	0.2	1 0 4	6	96.62
37.80	0.2	1 1 0	6	44.59
43.38	0.2	1 1 3	12	99.82
46.21	0.2	2 0 2	6	1.46
52.58	0.2	0 2 4	6	50.05
57.54	0.2	1 1 6	12	100.00
59.78	0.2	2 1 1	12	2.60
61.17	0.2	1 2 2	12	3.30
61.35	0.2	0 1 8	6	7.58
66.56	0.2	2 1 4	12	39.66
68.25	0.2	3 0 0	6	61.31
70.46	0.2	1 2 5	12	1.31
74.36	0.2	2 0 8	6	1.52
76.94	0.2	1 0 10	6	17.73
77.30	0.2	1 1 9	12	9.57
80.75	0.2	2 2 0	6	2.29
84.41	0.2	2 2 3	12	1.91
86.41	0.2	3 1 2	12	1.40
86.57	0.2	1 2 8	12	3.00
89.07	0.2	0 2 10	6	8.37

#spectrum
3	0
3.01999998	0
3.03999996	0
3.05999994	0
3.07999992	0
3.0999999	0
3.11999989	0
3.1400001	0
3.16000009	0
3.18000007	0
3.20000005	0
3.22000003	0
3.24000001	0
3.25999999	0
3.27999997	0
3.29999995	0
3.31999993	0
3.33999991	0
3.3599999	0
3.38000011	0
3.4000001	0
3.42000008	0
3.44000006	0
3.46000004	0
3.48000002	0
3.5	0
3.51999998	0
3.53999996	0
3.55999994	0
3.57999992	0
3.5999999	0
3.61999989	0
3.6400001	0
3.66000009	0
3.68000007	0
3.70000005	0
3.72000003	0
3.74000001	0
3.75999999	0
3.77999997	0
3.79999995	0
3.81999993	0
3.83999991	0
3.8599999	0
3.88000011	0
3.9000001	0
3.92000008	0
3.94000006	0
3.96000004	0
3.98000002	0
4	1846.208
4.01999998	2146.376
4.03999996	2217.8232
4.05999994	2407.8047
4.07999992	2628.6045
4.0999999	3144.5166
4.11999989	3674.8555
4.13999987	4375.9238
4.15999985	5241.04
4.17999983	6047.5078
4.19999981	7467.6279
4.21999979	8573.6729
4.23999977	10456.9111
4.26000023	12803.5869
4.28000021	15702.9316
4.30000019	19317.1436
4.32000017	23572.3994
4.34000015	27226.8564
4.36000013	28060.6445
4.38000011	23328.8662
4.4000001	16642.6055
4.42000008	11376.915
4.44000006	7632.8311
4.46000004	5402.3604
4.48000002	4099.4922
4.5	2997.1924
4.51999998	2322.4062
4.53999996	1617.0625
4.55999994	1014.0703
4.57999992	715.3213
4.5999999	334.6953
4.61999989	159.0527
4.63999987	-63.7529
4.65999985	-265.8848
4.67999983	-288.5127
4.69999981	-676.8184
4.71999979	-459.9902
4.73999977	-720.2246
4.76000023	-773.7207
4.78000021	-638.6875
4.80000019	-941.333
4.82000017	-703.8701
3.84000015	-847.5156
4.86000013	-529.4814
4.88000011	-741.9873
4.9000001	-839.2471
4.92000008	-827.4756
4.94000006	-843.8838
4.96000004	-668.6846
4.98000002	-645.082
5	-690.2832
5.01999998	-618.4854
5.03999996	-530.8838
5.05999994	-533.6709
5.07999992	-463.0313
5.0999999	-300.1436
5.11999989	-337.1855
5.13999987	-339.3232
5.15999985	-216.7236
5.17999983	-190.5381
5.19999981	-380.9199
5.21999979	-101.0127
5.23999977	-318.9541
5.26000023	-259.8721
5.28000021	-155.8975
5.30000019	-109.1445
5.32000017	109.2773
5.34000015	-6.7412
5.36000013	-12.2959
5.38000011	172.5205
5.4000001	262.6221
5.42000008	234.9287
5.44000006	268.3672
5.46000004	350.8701
5.48000002	349.3779
5.5	375.8301
5.51999998	468.1777
5.53999996	447.3789
5.55999994	481.3896
5.57999992	499.1777
5.5999999	542.7139
5.61999989	532.9717
5.63999987	627.9326
5.65999985	877.5811
5.67999983	534.9043
5.69999981	637.8965
5.71999979	556.5547
5.73999977	615.8799
5.76000023	508.875
5.78000021	656.5488
5.80000019	697.9141
5.82000017	784.9834
5.84000015	793.7754
5.86000013	926.3096
5.88000011	759.6104
5.9000001	703.7021
5.92000008	624.6143
5.94000006	682.376
5.96000004	712.0225
5.98000002	677.585
6	706.1025
6.01999998	722.6123
6.03999996	669.1543
6.05999994	612.7695
6.07999992	522.502
6.0999999	675.3936
6.11999989	662.4922
6.13999987	594.8418
6.15999985	610.4912
6.17999983	544.4863
6.19999981	541.8789
6.21999979	507.7158
6.23999977	579.0469
6.26000023	464.9229
6.28000021	483.3965
6.30000019	389.5176
6.32000017	297.3369
6.34000015	333.9062
6.36000013	375.2783
6.38000011	150.5039
6.4000001	424.6338
6.42000008	297.7197
6.44000006	132.8145
6.46000004	128.9687
6.48000002	109.2305
6.5	-66.3447
6.51999998	155.292
6.53999996	-15.8135
6.55999994	110.3926
6.57999992	83.9561
6.5999999	-117.0723
6.61999989	-247.6455
6.63999987	-142.7168
6.65999985	-61.2383
6.67999983	-138.1631
6.69999981	-233.4492
6.71999979	-338.0498
6.73999977	-113.9209
6.76000023	-323.0195
6.78000021	-417.3018
6.80000019	-360.7275
6.82000017	-624.2549
6.84000015	-276.8428
6.86000013	-319.4551
6.88000011	-304.0469
6.9000001	-412.5859
6.92000008	-151.0342
6.94000006	-264.3525
6.96000004	-401.5098
6.98000002	-329.4678
7	-424.1924
7.01999998	-489.6563
7.03999996	-634.8193
7.05999994	-516.6572
7.07999992	-335.1367
7.0999999	-376.2266
7.11999989	-352.9023
7.13999987	-308.1299
7.15999985	-629.8887
7.17999983	-579.1475
7.19999981	-661.8867
7.21999979	-658.0752
7.23999977	-455.6885
7.26000023	-646.7119
7.28000021	-534.1191
7.30000019	-659.8867
7.32000017	-623.9902
7.34000015	-617.4199
7.36000013	-517.1504
7.38000011	-574.1641
7.4000001	-387.4424
7.42000008	-564.9697
7.44000006	-343.7295
7.46000004	-586.708
7.48000002	-332.8867
7.5	-473.2549
7.51999998	-219.7979
7.53999996	-251.5029
7.55999994	-358.3564
7.57999992	-240.3496
7.5999999	-189.4707
7.61999989	-272.708
7.63999987	-167.0537
7.65999985	-71.5
7.67999983	-93.0342
7.69999981	-115.6514
7.71999979	-162.3457
7.73999977	-82.1064
7.76000023	57.0684
7.78000021	144.1855
7.80000019	147.2539
7.82000017	15.2734
7.84000015	75.25
7.86000013	183.1865
7.88000011	273.0859
7.9000001	444.9531
7.92000008	744.7871
7.94000006	708.5928
7.96000004	782.3691
7.98000002	586.1172
8	1257.8389
8.02000046	1443.5322
8.03999996	1512.2012
8.06000042	1732.8379
8.07999992	2260.4492
8.10000038	2746.0283
8.11999989	3127.5752
8.14000034	3590.0879
8.15999985	4068.5635
8.18000031	5041
8.19999981	5694.3945
8.22000027	6975.7422
8.23999977	8369.04
8.26000023	10226.2852
8.27999973	11927.4727
8.30000019	13885.5977
8.31999969	15187.6553
8.34000015	15082.6416
8.35999966	13780.5508
8.38000011	11663.377
8.39999962	9686.1152
8.42000008	8710.7598
8.43999958	7602.3037
8.46000004	7202.7412
8.47999954	6911.0664
8.5	6995.2715
8.52000046	6901.3496
8.53999996	7150.2949
8.56000042	7478.0996
8.57999992	8147.7568
8.60000038	9623.2578
8.61999989	11288.5957
8.64000034	13703.7637
8.65999985	17009.752
8.68000031	20427.5537
8.69999981	22724.1611
8.72000027	21088.5654
8.73999977	17117.7578
8.76000023	13330.7305
8.77999973	9841.4746
8.80000019	8241.9824
8.81999969	6861.2432
8.84000015	6187.25
8.85999966	5772.9941
8.88000011	4684.4648
8.89999962	4407.6543
8.92000008	4135.5537
8.93999958	4133.1533
8.96000004	3396.4443
8.97999954	3117.417
9	3296.0625
9.02000046	3212.373
9.03999996	3139.335
9.06000042	2761.9434
9.07999992	2656.1875
9.10000038	2465.0576
9.11999989	2388.543
9.14000034	2308.6357
9.15999985	2138.3281
9.18000031	2079.6074
9.19999981	1910.4639
9.22000027	2028.8916
9.23999977	2037.8779
9.26000023	1997.417
9.27999973	1767.4941
9.30000019	1598.1045
9.31999969	1603.2354
9.34000015	1536.8799
9.35999966	1578.0273
9.38000011	1423.6699
9.39999962	1496.7949
9.42000008	1145.3955
9.43999958	1107.4619
9.46000004	1186.9854
9.47999954	1208.9551
9.5	1270.3643
9.52000046	631.2031
9.53999996	815.459
9.56000042	756.127
9.57999992	691.1943
9.60000038	857.6572
9.61999989	424.502
9.64000034	551.7227
9.65999985	688.3076
9.68000031	676.251
9.69999981	628.541
9.72000027	607.1719
9.73999977	518.1309
9.76000023	560.4141
9.77999973	904.0098
9.80000019	975.9121
9.81999969	1088.1113
9.84000015	1128.5967
9.85999966	1560.3623
9.88000011	1348.4004
9.89999962	1785.6973
9.92000008	2262.2549
9.93999958	2580.0566
9.96000004	2982.0977
9.97999954	3359.3711
10	3839.8672
10.0200005	4498.5781
10.04	4547.4961
10.0600004	4311.6152
10.0799999	3597.9258
10.1000004	3108.4219
10.1199999	2472.0937
10.1400003	2152.9355
10.1599998	1529.9395
10.1800003	1044.0996
10.1999998	935.4033
10.2200003	810.8525
10.2399998	582.4336
10.2600002	326.1426
10.2799997	239.9687
10.3000002	414.9092
10.3199997	111.957
10.3400002	-93.9004
10.3599997	-87.6621
10.3800001	-406.3369
10.3999996	-527.9346
10.4200001	-280.4561
10.4399996	-537.915
10.46	-286.3115
10.4799995	-618.6543
10.5	-706.9473
10.5200005	-493.1982
10.54	-520.416
10.5600004	-521.6016
10.5799999	-424.7627
10.6000004	-698.9072
10.6199999	-491.04
10.6400003	-565.1621
10.6599998	-653.2852
10.6800003	-663.4111
10.6999998	-746.5479
10.7200003	-544.6982
10.7399998	-407.8701
10.7600002	-412.0645
10.7799997	-316.293
10.8000002	-249.5557
10.8199997	145.1416
10.8400002	492.7939
10.8599997	477.3926
10.8800001	1066.9404
10.8999996	1330.4248
10.9200001	1976.8477
10.9399996	2426.1992
10.96	2372.4775
10.9799995	1891.6777
11	1590.7949
11.0200005	926.8281
11.04	363.7666
11.0600004	263.6113
11.0799999	24.3564
11.1000004	-348.0029
11.1199999	-520.4688
11.1400003	-467.0459
11.1599998	-551.7393
11.1800003	-686.5508
11.1999998	-849.4863
11.2200003	-819.5479
11.2399998	-859.7412
11.2600002	-596.0664
11.2799997	-786.5293
11.3000002	-828.1328
11.3199997	-637.8809
11.3400002	-718.7754
11.3599997	-660.8213
11.3800001	-627.0215
11.3999996	-916.3789
11.4200001	-880.8936
11.4399996	-924.5762
11.46	-920.4199
11.4799995	-884.4365
11.5	-1054.623
11.5200005	-933.9824
11.54	-920.5234
11.5600004	-865.2412
11.5799999	-838.1436
11.6000004	-763.2305
11.6199999	-647.5049
11.6400003	-755.9697
11.6599998	-721.6289
11.6800003	-820.4795
11.6999998	-708.5313
11.7200003	-861.7813
11.7399998	-686.2334
11.7600002	-645.8887
11.7799997	-716.751
11.8000002	-663.8213
11.8199997	-745.1035
11.8400002	-706.59277
11.8599997	-709.30176
11.8800001	-726.22363
11.8999996	-472.36426
11.9200001	-595.72363
11.9399996	-582.30664
11.96	-627.11035
11.9799995	-619.14063
12	-577.39551
12.0200005	-665.87695
12.04	-543.59082
12.0600004	-413.53223
12.0799999	-570.70898
12.1000004	-676.11914
12.1199999	-594.76367
12.1400003	-530.64355
12.1599998	-515.76172
12.1800003	-418.11719
12.1999998	-555.71387
12.2200003	-428.55078
12.2399998	-344.63086
12.2600002	-492.9541
12.2799997	-358.52246
12.3000002	-419.33301
12.3199997	-267.39258
12.3400002	-211.69727
12.3599997	-243.25195
12.3800001	-326.05273
12.3999996	-153.10547
12.4200001	-212.4082
12.4399996	-84.96191
12.46	-209.76563
12.4799995	-185.82324
12.5	-295.13379
12.5200005	-148.69727
12.54	-77.5166
12.5600004	-226.58789
12.5799999	10.08301
12.6000004	-191.50195
12.6199999	73.65723
12.6400003	-140.43848
12.6599998	84.20508
12.6800003	154.59473
12.6999998	210.72656
12.7200003	148.60059
12.7399998	185.21387
12.7600002	139.57129
12.7799997	172.66992
12.8000002	350.50781
12.8199997	233.08887
12.8400002	333.41016
12.8599997	534.47168
12.8800001	551.27539
12.8999996	764.81738
12.9200001	655.10156
12.9399996	803.12695
12.96	963.89258
12.9799995	1058.39746
13	1479.64648
13.0200005	1764.63477
13.04	1866.36426
13.0600004	1867.83496
13.0799999	1725.04687
13.1000004	1714.00098
13.1199999	1274.6958
13.1400003	1043.13379
13.1599998	910.31348
13.1800003	867.23535
13.1999998	836.90088
13.2200003	740.30957
13.2399998	655.46045
13.2600002	666.35791
13.2799997	532.99805
13.3000002	459.38232
13.3199997	506.51221
13.3400002	659.38818
13.3599997	472.00928
13.3800001	443.37842
13.3999996	641.49219
13.4200001	368.35498
13.4399996	335.96533
13.46	393.32422
13.4799995	438.43213
13.5	609.28955
13.5200005	437.89795
13.54	558.25586
13.5600004	473.3667
13.5799999	636.22852
13.6000004	515.84326
13.6199999	453.21191
13.6400003	516.33398
13.6599998	543.21045
13.6800003	500.84326
13.6999998	596.23145
13.7200003	371.37793
13.7399998	570.28027
13.7600002	527.94189
13.7799997	786.36279
13.8000002	584.54346
13.8199997	697.48535
13.8400002	678.18799
13.8599997	574.65283
13.8800001	459.88232
13.8999996	620.87451
13.9200001	562.63135
13.9399996	787.1543
13.96	799.44482
13.9799995	735.50146
14	792.32715
14.0200005	754.92236
14.04	911.28711
14.0600004	815.42334
14.0799999	792.33105
14.1000004	852.01221
14.1199999	1028.46777
14.1400003	1005.69727
14.1599998	1137.70361
14.1800003	1318.48633
14.1999998	1380.0459
14.2200003	1325.38477
14.2399998	1193.50342
14.2600002	1152.40283
14.2799997	1173.08447
14.3000002	992.54834
14.3199997	1021.79639
14.3400002	965.8291
14.3599997	830.64697
14.3800001	694.25244
14.3999996	724.646
14.4200001	741.82812
14.4399996	737.80078
14.46	781.56396
14.4799995	566.11963
14.5	592.46826
14.5200005	781.61182
14.54	833.55029
14.5600004	727.28564
14.5799999	636.81836
14.6000004	479.1499
14.6199999	564.28076
14.6400003	671.21338
14.6599998	629.94727
14.6800003	620.48486
14.6999998	746.82617
14.7200003	849.97314
14.7399998	709.92627
14.7600002	749.6875
14.7799997	810.25732
14.8000002	905.63672
14.8199997	817.82764
14.8400002	943.83057
14.8599997	962.64648
14.8800001	1028.27734
14.8999996	856.72363
14.9200001	727.98682
14.9399996	721.06738
14.96	671.96777
14.9799995	687.6875
15	673.22949
15.0200005	694.59326
15.04	725.78125
15.0600004	676.79395
15.0799999	654.63281
15.1000004	688.29834
15.1199999	560.79248
15.1400003	739.11621
15.1599998	679.271
15.1800003	639.25732
15.1999998	570.07666
15.2200003	562.72998
15.2399998	449.21875
15.2600002	451.54443
15.2799997	580.70752
15.3000002	614.70947
15.3199997	407.55127
15.3400002	599.23486
15.3599997	373.76074
15.3800001	510.12988
15.3999996	431.34375
15.4200001	437.40381
15.4399996	453.31104
15.46	473.06543
15.4799995	488.67041
15.5	313.12549
15.5200005	505.43213
15.54	388.59229
15.5600004	516.60645
15.5799999	524.47607
15.6000004	571.20166
15.6199999	319.78467
15.6400003	437.22656
15.6599998	657.52881
15.6800003	401.69141
15.6999998	554.7168
15.7200003	476.60498
15.7399998	263.3584
15.7600002	520.97656
15.7799997	510.46289
15.8000002	489.81641
15.8199997	419.03857
15.8400002	431.13135
15.8599997	432.09619
15.8800001	433.93262
15.8999996	401.64355
15.9200001	516.22852
15.9399996	629.69043
15.96	425.02881
15.9799995	300.24463
16	428.34082
16.0200005	225.31787
16.0400009	309.17578
16.0599995	259.91748
16.0799999	44.54199
16.1000004	468.05127
16.1200008	351.44727
16.1399994	158.73096
16.1599998	542.90186
16.1800003	218.96191
16.2000008	226.91309
16.2199993	124.75684
16.2399998	191.49072
16.2600002	165.12012
16.2800007	197.64453
16.2999992	131.06494
16.3199997	252.38232
16.3400002	284.59668
16.3600006	107.71191
16.3799992	175.72705
16.3999996	269.64307
16.4200001	349.46143
16.4400005	347.18311
16.4599991	364.80957
16.4799995	273.3418
16.5	372.78027
16.5200005	316.12744
16.5400009	398.38281
16.5599995	358.54834
16.5799999	307.62451
16.6000004	279.61182
16.6200008	45.51221
16.6399994	253.32764
16.6599998	241.05762
16.6800003	272.70312
16.7000008	234.26514
16.7199993	246.74658
16.7399998	174.146
16.7600002	179.46582
16.7800007	9.70605
16.7999992	114.87012
16.8199997	92.95557
16.8400002	-87.03467
16.8600006	2.90039
16.8799992	112.76221
16.8999996	208.55029
16.9200001	112.26514
16.9400005	83.91113
16.9599991	209.48682
16.9799995	3.99219
17	210.42871
17.0200005	131.79883
17.0400009	56.10205
17.0599995	228.34326
17.0799999	-73.48242
17.1000004	22.62842
17.1200008	82.67578
17.1399994	7.66504
17.1599998	-68.40869
17.1800003	102.45703
17.2000008	12.26514
17.2199993	-57.98291
17.2399998	-64.29053
17.2600002	61.3457
17.2800007	-44.07275
17.2999992	-57.54297
17.3199997	-193.06836
17.3400002	-45.64844
17.3600006	152.72168
17.3799992	165.04395
17.3999996	131.3125
17.4200001	-58.4668
17.4400005	-29.29199
17.4599991	30.83301
17.4799995	-18.08789
17.5	162.94727
17.5200005	-17.06348
17.5400009	-91.11816
17.5599995	44.78613
17.5799999	41.64551
17.6000004	58.46484
17.6200008	183.24414
17.6399994	-21.01563
17.6599998	-76.31641
17.6800003	-72.65234
17.7000008	69.97363
17.7199993	175.56348
17.7399998	289.11719
17.7600002	120.63574
17.7800007	149.12109
17.7999992	254.57422
17.8199997	181.99414
17.8400002	193.38184
17.8600006	318.74023
17.8799992	231.06836
17.8999996	70.36719
17.9200001	341.63574
17.9400005	447.87793
17.9599991	485.0957
17.9799995	448.28418
18	324.44824
18.0200005	603.58594
18.0400009	467.70215
18.0599995	415.79492
18.0799999	294.86523
18.1000004	369.91211
18.1200008	386.93945
18.1399994	406.94824
18.1599998	376.93457
18.1800003	269.90234
18.2000008	105.85254
18.2199993	104.78809
18.2399998	-76.29688
18.2600002	129.60352
18.2800007	138.48828
18.2999992	223.36035
18.3199997	-0.78418
18.3400002	187.05957
18.3600006	224.89062
18.3799992	319.70996
18.3999996	221.5166
18.4200001	254.3125
18.4400005	40.09961
18.4599991	-72.12012
18.4799995	88.64844
18.5	156.40918
18.5200005	-52.83594
18.5400009	61.90918
18.5599995	-110.34668
18.5799999	116.38867
18.6000004	-81.88086
18.6200008	64.8457
18.6399994	102.57129
18.6599998	124.29102
18.6800003	197.00879
18.7000008	198.72559
18.7199993	143.44141
18.7399998	150.15625
18.7600002	206.87207
18.7800007	160.58691
18.7999992	223.30566
18.8199997	324.02344
18.8400002	156.74512
18.8600006	109.46973
18.8799992	231.19922
18.8999996	-46.06836
18.9200001	242.66895
18.9400005	-159.58984
18.9599991	185.16016
18.9799995	140.91406
19	198.67578
19.0200005	150.44531
19.0400009	24.22266
19.0599995	129.00977
19.0799999	158.80371
19.1000004	364.6084
19.1200008	239.42383
19.1399994	147.25098
19.1599998	443.08789
19.1800003	221.9375
19.2000008	389.79883
19.2199993	515.67187
19.2399998	672.55859
19.2600002	778.45996
19.2800007	1023.37598
19.2999992	1417.30664
19.3199997	1613.25195
19.3400002	1668.21289
19.3600006	1898.19141
19.3799992	1806.18652
19.3999996	1470.19727
19.4200001	1306.22754
19.4400005	988.27441
19.4599991	855.34277
19.4799995	721.42676
19.5	556.53223
19.5200005	405.65723
19.5400009	399.80078
19.5599995	413.9707
19.5799999	281.15625
19.6000004	368.36719
19.6200008	240.59961
19.6399994	306.85449
19.6599998	354.13281
19.6800003	238.43359
19.7000008	159.75977
19.7199993	460.11035
19.7399998	267.4854
19.7600002	307.8857
19.7800007	134.3115
19.7999992	87.7637
19.8199997	79.2422
19.8400002	216.748
19.8600006	296.2803
19.8799992	241.8418
19.8999996	361.4307
19.9200001	399.0479
19.9400005	361.6943
19.9599991	511.3701
19.9799995	344.0752
20	393.8105
20.0200005	394.5752
20.0400009	686.3721
20.0599995	521.2021
20.0799999	610.0615
20.1000004	555.9521
20.1200008	835.875
20.1399994	653.833
20.1599998	874.8232
20.1800003	700.8457
20.2000008	829.9014
20.2199993	743.9932
20.2399998	680.1172
20.2600002	388.2773
20.2800007	555.4727
20.2999992	641.7031
20.3199997	402.9697
20.3400002	496.2725
20.3600006	451.6104
20.3799992	360.9873
20.3999996	356.4004
20.4200001	360.8496
20.4400005	494.3379
20.4599991	438.8643
20.4799995	118.4287
20.5	467.0312
20.5200005	430.6729
20.5400009	751.3545
20.5599995	603.0762
20.5799999	768.8369
20.6000004	827.6377
20.6200008	1081.4785
20.6399994	1112.3633
20.6599998	872.2852
20.6800003	1109.249
20.7000008	1399.2568
20.7199993	1810.3057
20.7399998	1808.3965
20.7600002	1922.5283
20.7800007	2255.7041
20.7999992	2103.9248
20.8199997	1918.1855
20.8400002	1633.4922
20.8600006	1603.8418
20.8799992	1202.2373
20.8999996	948.6738
20.9200001	804.1562
20.9400005	785.6836
20.9599991	727.2578
20.9799995	565.875
21	420.5391
21.0200005	413.248
21.0400009	367.0039
21.0599995	319.8066
21.0799999	281.6562
21.1000004	255.5508
21.1200008	347.4932
21.1399994	227.4834
21.1599998	246.5205
21.1800003	380.6064
21.2000008	294.7393
21.2199993	231.9219
21.2399998	380.1514
21.2600002	314.4297
21.2800007	229.7559
21.2999992	579.1338
21.3199997	555.5605
21.3400002	608.0342
21.3600006	534.5596
21.3799992	595.1357
21.3999996	936.7607
21.4200001	497.4355
21.4400005	580.1621
21.4599991	714.9385
21.4799995	432.7666
21.5	352.6445
21.5200005	308.5742
21.5400009	360.5557
21.5599995	196.5889
21.5799999	278.6738
21.6000004	174.8115
21.6200008	208
21.6399994	348.2441
21.6599998	123.5371
21.6800003	228.8838
21.7000008	272.2842
21.7199993	77.7383
21.7399998	143.2441
21.7600002	244.8037
21.7800007	492.417
21.7999992	363.0859
21.8199997	502.8076
21.8400002	450.582
21.8600006	434.4111
21.8799992	558.2969
21.8999996	457.2354
21.9200001	259.2275
21.9400005	163.2764
21.9599991	286.3809
21.9799995	293.5381
22	111.752
22.0200005	192.0215
22.0400009	126.3457
22.0599995	88.7285
22.0799999	-67.8359
22.1000004	96.6562
22.1200008	117.2061
22.1399994	165.8115
