# Lines beginning with `#' are comments and are ignored.
# Blank lines are significant: do not add or remove!
# _database_code_amcsd 0009325
#
# sg, abc, angles.
227a	35.136299 35.136299 35.136299    90 90 90
# ctl, extra.
0.25 0.75 0.875	0.5 1.0
# limits.
--

# rad/asf, n, limits, comb.
# rads: (1.6 1) -> (1.088 1.26).
Zr6_O20	16	--	--
# zooms.
1.6:0-0
# comb, bound.
#0@c1	0	0	0.14784
#1@e1	0.30624	0	0.25

# 2theta, fwhm, hkl, mult, val.
25.59	0.2	0 1 2	6	61.91
35.17	0.2	1 0 4	6	96.62
37.80	0.2	1 1 0	6	44.59
43.38	0.2	1 1 3	12	99.82
46.21	0.2	2 0 2	6	1.46
52.58	0.2	0 2 4	6	50.05
57.54	0.2	1 1 6	12	100.00
59.78	0.2	2 1 1	12	2.60
61.17	0.2	1 2 2	12	3.30
61.35	0.2	0 1 8	6	7.58
66.56	0.2	2 1 4	12	39.66
68.25	0.2	3 0 0	6	61.31
70.46	0.2	1 2 5	12	1.31
74.36	0.2	2 0 8	6	1.52
76.94	0.2	1 0 10	6	17.73
77.30	0.2	1 1 9	12	9.57
80.75	0.2	2 2 0	6	2.29
84.41	0.2	2 2 3	12	1.91
86.41	0.2	3 1 2	12	1.40
86.57	0.2	1 2 8	12	3.00
89.07	0.2	0 2 10	6	8.37

#spectrum
3	0.0107
3.01999998	0.0098
3.03999996	0.0107
3.05999994	0.0097
3.07999992	0.0098
3.0999999	0.0107
3.11999989	0.0108
3.1400001	0.0098
3.16000009	0.0097
3.18000007	0.0098
3.20000005	0.0098
3.22000003	0.0107
3.24000001	0.0107
3.25999999	0.0107
3.27999997	0.0097
3.29999995	0.0108
3.31999993	0.0107
3.33999991	0.0098
3.3599999	0.0107
3.38000011	0.0098
3.4000001	0.0107
3.42000008	0.0108
3.44000006	0.0107
3.46000004	0.0097
3.48000002	0.0107
3.5	0.0097
3.51999998	0.0098
3.53999996	0.0098
3.55999994	0.0107
3.57999992	0.0098
3.5999999	0.0107
3.61999989	0.0107
3.6400001	0.0098
3.66000009	0.0098
3.68000007	0.0107
3.70000005	0.0107
3.72000003	0.0107
3.74000001	0.0097
3.75999999	0.0098
3.77999997	0.0098
3.79999995	0.0098
3.81999993	0.0098
3.83999991	0.0097
3.8599999	0.0107
3.88000011	0.0097
3.9000001	0.0097
3.92000008	0.0097
3.94000006	0.0107
3.96000004	0.0097
3.98000002	0.0098
4	0.0097
4.01999998	0.0098
4.03999996	0.0108
4.05999994	0.0108
4.07999992	0.0108
4.0999999	0.0107
4.11999989	0.0107
4.13999987	0.0098
4.15999985	0.0097
4.17999983	0.0098
4.19999981	280.2002
4.21999979	365.3838
4.23999977	496.0967
4.26000023	733.1514
4.28000021	1500.9443
4.30000019	5257.5469
4.32000017	18155.334
4.34000015	39769.9062
4.36000013	47618.0889
4.38000011	30032.0507
4.4000001	10979.2802
4.42000008	2934.3037
4.44000006	1030.8477
4.46000004	607.2647
4.48000002	431.1856
4.5	323.8193
4.51999998	0.0098
4.53999996	0.0108
4.55999994	0.0098
4.57999992	0.0098
4.5999999	0.0098
4.61999989	0.0098
4.63999987	0.0098
4.65999985	0.0107
4.67999983	0.0097
4.69999981	0.0097
4.71999979	0.0108
4.73999977	0.0098
4.76000023	0.0098
4.78000021	0.0098
4.80000019	0.0107
4.82000017	0.0107
4.84000015	0.0098
4.86000013	0.0108
4.88000011	0.0097
4.9000001	0.0097
4.92000008	0.0108
4.94000006	0.0098
4.96000004	0.0108
4.98000002	0.0108
5	0.0107
5.01999998	0.0098
5.03999996	0.0098
5.05999994	0.0097
5.07999992	0.0108
5.0999999	0.0107
5.11999989	0.0108
5.13999987	0.0098
5.15999985	0.0108
5.17999983	0.0098
5.19999981	0.0098
5.21999979	0.0098
5.23999977	0.0108
5.26000023	0.0098
5.28000021	0.0098
5.30000019	0.0097
5.32000017	0.0098
5.34000015	0.0107
5.36000013	0.0107
5.38000011	0.0098
5.4000001	0.0098
5.42000008	0.0098
5.44000006	0.0098
5.46000004	0.0097
5.48000002	0.0107
5.5	0.0098
5.51999998	0.0108
5.53999996	0.0107
5.55999994	0.0097
5.57999992	0.0108
5.5999999	0.0098
5.61999989	0.0097
5.63999987	0.0107
5.65999985	0.0098
5.67999983	0.0098
5.69999981	0.0098
5.71999979	0.0107
5.73999977	0.0097
5.76000023	0.0097
5.78000021	0.0098
5.80000019	0.0098
5.82000017	0.0098
5.84000015	0.0098
5.86000013	0.0098
5.88000011	0.0108
5.9000001	0.0098
5.92000008	0.0108
5.94000006	0.0107
5.96000004	0.0108
5.98000002	0.0097
6	0.0098
6.01999998	0.0097
6.03999996	0.0098
6.05999994	0.0098
6.07999992	0.0098
6.0999999	0.0098
6.11999989	0.0098
6.13999987	0.0108
6.15999985	0.0098
6.17999983	0.0108
6.19999981	0.0097
6.21999979	0.0097
6.23999977	0.0098
6.26000023	0.0107
6.28000021	0.0108
6.30000019	0.0098
6.32000017	0.0097
6.34000015	0.0107
6.36000013	0.0098
6.38000011	0.0098
6.4000001	0.0097
6.42000008	0.0098
6.44000006	0.0108
6.46000004	0.0098
6.48000002	0.0097
6.5	0.0097
6.51999998	0.0098
6.53999996	0.0098
6.55999994	0.0097
6.57999992	0.0097
6.5999999	0.0098
6.61999989	0.0098
6.63999987	0.0098
6.65999985	0.0108
6.67999983	0.0097
6.69999981	0.0097
6.71999979	0.0098
6.73999977	0.0097
6.76000023	0.0098
6.78000021	0.0108
6.80000019	0.0098
6.82000017	0.0108
6.84000015	0.0107
6.86000013	0.0108
6.88000011	0.0107
6.9000001	0.0098
6.92000008	0.0097
6.94000006	1.1387
6.96000004	2.0273
6.98000002	2.6435
7	3.5957
7.01999998	5.374
7.03999996	11.4267
7.05999994	40.1211
7.07999992	131.8925
7.0999999	274.9258
7.11999989	320.583
7.13999987	208.2148
7.15999985	81.1845
7.17999983	23.0225
7.19999981	7.8457
7.21999979	4.4287
7.23999977	3.1191
7.26000023	2.3399
7.28000021	0.0098
7.30000019	0.0098
7.32000017	0.0098
7.34000015	0.0107
7.36000013	0.0098
7.38000011	0.0098
7.4000001	0.0097
7.42000008	0.0098
7.44000006	0.0108
7.46000004	0.0107
7.48000002	0.0108
7.5	0.0107
7.51999998	0.0097
7.53999996	0.0098
7.55999994	0.0098
7.57999992	0.0098
7.5999999	0.0098
7.61999989	0.0097
7.63999987	0.0097
7.65999985	0.0098
7.67999983	0.0098
7.69999981	0.0097
7.71999979	0.0107
7.73999977	0.0098
7.76000023	0.0098
7.78000021	0.0107
7.80000019	0.0098
7.82000017	0.0097
7.84000015	0.0097
7.86000013	0.0098
7.88000011	0.0098
7.9000001	0.0097
7.92000008	0.0097
7.94000006	0.0098
7.96000004	0.0098
7.98000002	0.0097
8	0.0097
8.02000046	0.0098
8.03999996	0.0098
8.06000042	0.0098
8.07999992	0.0097
8.10000038	0.0098
8.11999989	0.0098
8.14000034	0.0098
8.15999985	0.0098
8.18000031	25.877
8.19999981	46.3116
8.22000027	61.6553
8.23999977	86.9434
8.26000023	149.1201
8.27999973	427.8515
8.30000019	1550.6455
8.31999969	4060.0664
8.34000015	6270.8555
8.35999966	5450.1807
8.38000011	2802.4727
8.39999962	937.5
8.42000008	271.8135
8.43999958	116.249
8.46000004	74.6142
8.47999954	54.3613
8.5	16.3135
8.52000046	0.0098
8.53999996	28.2295
8.56000042	35.9512
8.57999992	64.8135
8.60000038	87.9482
8.61999989	130.4619
8.64000034	270.3955
8.65999985	927.9248
8.68000031	3053.6396
8.69999981	6469.5732
8.72000027	7822.7032
8.73999977	5473.7901
8.76000023	2347.3057
8.77999973	709.8388
8.80000019	227.4306
8.81999969	118.2461
8.84000015	81.3975
8.85999966	60.5957
8.88000011	18.4209
8.89999962	0.0098
8.92000008	0.0088
8.93999958	0.0098
8.96000004	0.0098
8.97999954	0.0107
9	0.0097
9.02000046	0.0098
9.03999996	0.0098
9.06000042	0.0097
9.07999992	0.0107
9.10000038	0.0098
9.11999989	0.0097
9.14000034	0.0098
9.15999985	0.0098
9.18000031	0.0097
9.19999981	0.0097
9.22000027	0.0098
9.23999977	0.0098
9.26000023	0.0097
9.27999973	0.0107
9.30000019	0.0098
9.31999969	0.0098
9.34000015	0.0097
9.35999966	0.0097
9.38000011	0.0098
9.39999962	0.0098
9.42000008	0.0107
9.43999958	0.0097
9.46000004	0.0098
9.47999954	0.0098
9.5	0.0097
9.52000046	0.0097
9.53999996	0.0098
9.56000042	0.0098
9.57999992	0.0098
9.60000038	0.0098
9.61999989	0.0097
9.64000034	0.0097
9.65999985	0.0088
9.68000031	0.0098
9.69999981	0.0098
9.72000027	0.0098
9.73999977	0.0097
9.76000023	0.0098
9.77999973	0.0098
9.80000019	0.0098
9.81999969	0.0098
9.84000015	0.0098
9.85999966	0.0097
9.88000011	0.0098
9.89999962	9.6709
9.92000008	17.0234
9.93999958	22.5303
9.96000004	31.4219
9.97999954	51.7002
10	138.1397
10.0200005	498.5976
10.04	1360.2217
10.0600004	2236.6318
10.0799999	2124.7198
10.1000004	1248.8642
10.1199999	477.2998
10.1400003	142.0049
10.1599998	52.6758
10.1800003	31.0713
10.1999998	22.1884
10.2200003	6.8613
10.2399998	0.0098
10.2600002	0.0097
10.2799997	0.0098
10.3000002	0.0097
10.3199997	0.0098
10.3400002	0.0098
10.3599997	0.0098
10.3800001	0.0098
10.3999996	0.0098
10.4200001	0.0098
10.4399996	0.0098
10.46	0.0088
10.4799995	0.0107
10.5	0.0097
10.5200005	0.0108
10.54	0.0088
10.5600004	0.0088
10.5799999	0.0098
10.6000004	0.0098
10.6199999	0.0097
10.6400003	0.0108
10.6599998	0.0098
10.6800003	0.0097
10.6999998	0.0097
10.7200003	0.0098
10.7399998	0.0108
10.7600002	0.0107
10.7799997	0.0088
10.8000002	2.8106
10.8199997	3.5976
10.8400002	6.3897
10.8599997	8.7451
10.8800001	13.4003
10.8999996	30.6181
10.9200001	108.2197
10.9399996	327.9257
10.96	621.2959
10.9799995	682.4072
11	469.9864
11.0200005	210.4453
11.04	67.4385
11.0600004	21.8174
11.0799999	11.0811
11.1000004	7.5859
11.1199999	2.378
11.1400003	1.7959
11.1599998	0.0098
11.1800003	0.0098
11.1999998	0.0088
11.2200003	0.0088
11.2399998	0.0098
11.2600002	0.0097
11.2799997	0.0107
11.3000002	0.0088
11.3199997	0.0098
11.3400002	0.0098
11.3599997	0.0098
11.3800001	0.0088
11.3999996	0.0097
11.4200001	0.0098
11.4399996	0.0098
11.46	0.0097
11.4799995	0.0098
11.5	0.0098
11.5200005	0.0098
11.54	0.0098
11.5600004	0.0098
11.5799999	0.0097
11.6000004	0.0098
11.6199999	0.0097
11.6400003	0.0097
11.6599998	0.0097
11.6800003	0.0097
11.6999998	0.0098
11.7200003	0.0097
11.7399998	0.0098
11.7600002	0.0087
11.7799997	0.0098
11.8000002	0.0097
11.8199997	0.0097
11.8400002	0.0098
11.8599997	0.0098
11.8800001	0.0098
11.8999996	0.0088
11.9200001	0.0087
11.9399996	0.0098
11.96	0.0088
11.9799995	0.0098
12	0.0097
12.0200005	0.0097
12.04	0.0098
12.0600004	0.0098
12.0799999	0.0097
12.1000004	0.0097
12.1199999	0.0098
12.1400003	0.0097
12.1599998	0.1904
12.1800003	0.2392
12.1999998	0.4131
12.2200003	0.5547
12.2399998	0.8164
12.2600002	1.6699
12.2799997	5.6055
12.3000002	17.9775
12.3199997	37.2031
12.3400002	45.0078
12.3599997	34.8018
12.3800001	18.2256
12.3999996	6.6104
12.4200001	2.0468
12.4399996	0.8828
12.46	0.5684
12.4799995	0.419
12.5	0.1416
12.5200005	0.0097
12.54	0.0098
12.5600004	0.0098
12.5799999	0.0098
12.6000004	0.0098
12.6199999	0.0098
12.6400003	0.0098
12.6599998	0.0098
12.6800003	0.0098
12.6999998	0.0088
12.7200003	0.0098
12.7399998	0.0098
12.7600002	0.0097
12.7799997	0.0088
12.8000002	0.0098
12.8199997	0.0088
12.8400002	0.0098
12.8599997	0.0098
12.8800001	0.0097
12.8999996	0.0088
12.9200001	1.7851
12.9399996	2.3008
12.96	4.0459
12.9799995	5.6201
13	9.1631
13.0200005	24.0332
13.04	85.4649
13.0600004	230.0029
13.0799999	374.2911
13.1000004	364.1816
13.1199999	244.8643
13.1400003	113.1074
13.1599998	37.6982
13.1800003	12.4297
13.1999998	6.3379
13.2200003	4.3555
13.2399998	1.4238
13.2600002	1.0772
13.2799997	0.0088
13.3000002	0.0088
13.3199997	0.0087
13.3400002	0.0088
13.3599997	0.0088
13.3800001	0.0098
13.3999996	0.0088
13.4200001	0.0098
13.4399996	0.0087
13.46	0.0098
13.4799995	0.0097
13.5	0.0097
13.5200005	0.0098
13.54	0.0098
13.5600004	0.0097
13.5799999	0.0097
13.6000004	0.0098
13.6199999	0.0088
13.6400003	0.0088
13.6599998	0.0088
13.6800003	0.0088
13.6999998	0.0088
13.7200003	0.0097
13.7399998	0.0088
13.7600002	0.0098
13.7799997	0.0088
13.8000002	0.0098
13.8199997	0.0097
13.8400002	0.0098
13.8599997	0.0098
13.8800001	0.0098
13.8999996	0.0097
13.9200001	0.0097
13.9399996	0.0098
13.96	0.0088
13.9799995	0.0088
14	0.0088
14.0200005	0.0088
14.04	0.0098
14.0600004	0.0098
14.0799999	0.0244
14.1000004	0.0283
14.1199999	0.042
14.1400003	0.0528
14.1599998	0.0771
14.1800003	0.1611
14.1999998	0.5362
14.2200003	1.5908
14.2399998	2.9726
14.2600002	3.2686
14.2799997	2.4882
14.3000002	1.3789
14.3199997	0.5362
14.3400002	0.1748
14.3599997	0.0781
14.3800001	0.0527
14.3999996	0.0234
14.4200001	0.0206
14.4399996	0.0088
14.46	0.0098
14.4799995	0.0097
14.5	0.0088
14.5200005	0.0088
14.54	0.0098
14.5600004	0.0088
14.5799999	0.0088
14.6000004	0.0098
14.6199999	0.0098
14.6400003	0.0097
14.6599998	0.0097
14.6800003	0.0098
14.6999998	0.0098
14.7200003	0.0097
14.7399998	0.041
14.7600002	0.0498
14.7799997	0.0801
14.8000002	0.1074
14.8199997	0.164
14.8400002	0.3896
14.8599997	1.3594
14.8800001	3.7715
14.8999996	6.3867
14.9200001	6.4463
14.9399996	4.7471
14.96	3.5957
14.9799995	2.3105
15	2.6465
15.0200005	3.457
15.04	6.0156
15.0600004	17.7549
15.0799999	60.7295
15.1000004	142.6718
15.1199999	197.2715
15.1400003	172.9483
15.1599998	116.3134
15.1800003	55.7675
15.1999998	19.1152
15.2200003	6.3867
15.2399998	3.2822
15.2600002	2.2676
15.2799997	0.7735
15.3000002	0.5849
15.3199997	0.0098
15.3400002	0.0087
15.3599997	0.0088
15.3800001	0.0098
15.3999996	0.0088
15.4200001	0.0088
15.4399996	0.0098
15.46	0.0097
15.4799995	0.0088
15.5	0.0088
15.5200005	0.0088
15.54	0.0088
15.5600004	0.0098
15.5799999	0.0088
15.6000004	0.0088
15.6199999	0.0088
15.6400003	0.0087
15.6599998	0.0088
15.6800003	0.0097
15.6999998	0.0088
15.7200003	0.0088
15.7399998	0.0088
15.7600002	0.0088
15.7799997	0.5439
15.8000002	0.7021
15.8199997	1.208
15.8400002	1.6914
15.8599997	2.8535
15.8800001	7.9297
15.8999996	27.6875
15.9200001	69.3565
15.9399996	102.835
15.96	94.1142
15.9799995	67.6601
16	36.1797
16.0200005	13.4668
16.0400009	4.3203
16.0599995	1.9776
16.0799999	1.3115
16.1000004	0.455
16.1200008	0.3428
16.1399994	0.0088
16.1599998	0.0088
16.1800003	0.0088
16.2000008	0.0088
16.2199993	0.0088
16.2399998	0.0098
16.2600002	0.0088
16.2800007	0.0088
16.2999992	0.0088
16.3199997	0.0088
16.3400002	0.0088
16.3600006	0.4736
16.3799992	0.6015
16.3999996	0.7881
16.4200001	1.3711
16.4400005	2.0225
16.4599991	4.1582
16.4799995	13.9092
16.5	43.6064
16.5200005	86.6982
16.5400009	99.9746
16.5599995	80.6758
16.5799999	53.5312
16.6000004	25.2998
16.6200008	8.7021
16.6399994	3.3203
16.6599998	2.5429
16.6800003	4.416
16.7000008	9.2471
16.7199993	14.6162
16.7399998	13.8466
16.7600002	10.4756
16.7800007	6.2783
16.7999992	2.5996
16.8199997	0.8379
16.8400002	0.3408
16.8600006	0.2148
16.8799992	0.0791
16.8999996	0.0615
16.9200001	0.0088
16.9400005	0.0088
16.9599991	0.0088
16.9799995	0.0088
17	0.0088
17.0200005	0.0088
17.0400009	0.0087
17.0599995	0.0087
17.0799999	0.0088
17.1000004	0.0088
17.1200008	0.0088
17.1399994	0.0098
17.1599998	0.0088
17.1800003	0.0088
17.2000008	0.0088
17.2199993	0.0088
17.2399998	0.0088
17.2600002	0.0087
17.2800007	0.0088
17.2999992	0.0088
17.3199997	0.0235
17.3400002	0.0284
17.3600006	0.042
17.3799992	0.0576
17.3999996	0.1065
17.4200001	0.3252
17.4400005	1.0254
17.4599991	2.1123
17.4799995	2.5166
17.5	2.0586
17.5200005	1.4639
17.5400009	0.7647
17.5599995	0.2803
17.5799999	0.0996
17.6000004	0.0537
17.6200008	0.0391
17.6399994	0.0195
17.6599998	0.0166
17.6800003	0.0087
17.7000008	0.0087
17.7199993	0.0088
17.7399998	0.0087
17.7600002	0.0088
17.7800007	0.0087
17.7999992	0.0088
17.8199997	0.0088
17.8400002	0.0088
17.8600006	1.8985
17.8799992	2.4795
17.8999996	4.2598
17.9200001	6.1231
17.9400005	11.4619
17.9599991	35.8603
17.9799995	118.707
18	258.8076
18.0200005	324.5693
18.0400009	269.792
18.0599995	199.123
18.0799999	112.0586
18.1000004	42.7657
18.1200008	13.7686
18.1399994	6.29
18.1599998	4.1718
18.1800003	1.4834
18.2000008	1.1123
18.2199993	0.0088
18.2399998	0.0088
18.2600002	0.0088
18.2800007	0.0088
18.2999992	0.0088
18.3199997	0.0087
18.3400002	0.0088
18.3600006	0.0088
18.3799992	0.0088
18.3999996	0.0088
18.4200001	0.0088
18.4400005	0.0088
18.4599991	0.0088
18.4799995	0.0088
18.5	0.0087
18.5200005	0.0088
18.5400009	0.0088
18.5599995	0.0088
18.5799999	0.0088
18.6000004	0.0088
18.6200008	0.0088
18.6399994	0.0088
18.6599998	0.0078
18.6800003	0.0088
18.7000008	0.0088
18.7199993	0.3311
18.7399998	0.4239
18.7600002	0.71
18.7800007	0.9717
18.7999992	1.5196
18.8199997	3.6738
18.8400002	12.8409
18.8600006	35.5557
18.8799992	58.918
18.8999996	56.8828
18.9200001	44.1748
18.9400005	31.1279
18.9599991	15.291
18.9799995	5.2275
19	1.8282
19.0200005	1.001
19.0400009	0.3574
19.0599995	0.2617
19.0799999	0.2012
19.1000004	0.0078
19.1200008	0.0088
19.1399994	0.0088
19.1599998	0.0088
19.1800003	0.0078
19.2000008	0.0087
19.2199993	1.8838
19.2399998	2.4063
19.2600002	3.1768
19.2800007	5.4678
19.2999992	8.2168
19.3199997	17.8135
19.3400002	60.7929
19.3600006	182.3857
19.3799992	336.9033
19.3999996	354.2344
19.4200001	277.4238
19.4400005	208.7676
19.4599991	115.502
19.4799995	42.7334
19.5	13.9776
19.5200005	6.7763
19.5400009	2.3466
19.5599995	1.6767
19.5799999	1.2617
19.6000004	0.0087
19.6200008	0.0078
19.6399994	0.0088
19.6599998	0.0078
19.6800003	0.0088
19.7000008	0.0088
19.7199993	0.0088
19.7399998	0.0087
19.7600002	0.0078
19.7800007	0.0088
19.7999992	0.0088
19.8199997	0.0088
19.8400002	0.0088
19.8600006	0.0088
19.8799992	0.0088
19.8999996	0.0088
19.9200001	0.0088
19.9400005	0.0088
19.9599991	0.0087
19.9799995	0.0088
20	0.0088
20.0200005	0.0088
20.0400009	0.7998
20.0599995	1.0303
20.0799999	1.3769
20.1000004	2.3926
20.1200008	3.9043
20.1399994	10.2315
20.1599998	35.7265
20.1800003	92.2822
20.2000008	139.1553
20.2199993	123.7236
20.2399998	95.999
20.2600002	70.9345
20.2800007	35.8906
20.2999992	12.3857
20.3199997	4.293
20.3400002	2.3291
20.3600006	0.8398
20.3799992	0.6113
20.3999996	0.4648
20.4200001	0.0078
20.4400005	0.0078
20.4599991	0.0078
20.4799995	0.0088
20.5	0.0078
20.5200005	0.2989
20.5400009	0.3868
20.5599995	0.6504
20.5799999	0.9297
20.6000004	1.7168
20.6200008	5.3037
20.6399994	17.5127
20.6599998	39.3858
20.6800003	48.3623
20.7000008	39.4561
20.7199993	33.3867
20.7399998	26.0283
20.7600002	20.8886
20.7800007	42.1914
20.7999992	122.001
20.8199997	232.6826
20.8400002	249.6885
20.8600006	192.4434
20.8799992	154.4502
20.8999996	98.5566
20.9200001	40.6308
20.9400005	13.0371
20.9599991	5.5449
20.9799995	3.5634
21	1.3223
21.0200005	0.9853
21.0400009	0.0088
21.0599995	0.0088
21.0799999	0.0088
21.1000004	0.0078
21.1200008	0.0088
21.1399994	0.0078
21.1599998	0.0088
21.1800003	0.0078
21.2000008	0.0078
21.2199993	0.0088
21.2399998	0.0078
21.2600002	0.0078
21.2800007	0.7715
21.2999992	0.9961
21.3199997	1.335
21.3400002	2.3037
21.3600006	3.7871
21.3799992	10.0488
21.3999996	34.9531
21.4200001	88.918
21.4400005	130.8545
21.4599991	112.5009
21.4799995	87.001
21.5	69.0898
21.5200005	37.7676
21.5400009	13.5927
21.5599995	4.541
21.5799999	2.3233
21.6000004	0.8447
21.6200008	0.6094
21.6399994	0.4629
21.6599998	0.0078
21.6800003	0.0078
21.7000008	0.0088
21.7199993	0.3174
21.7399998	0.4024
21.7600002	0.5283
21.7800007	0.8925
21.7999992	1.3359
21.8199997	2.8731
21.8400002	9.7393
21.8600006	29.1123
21.8799992	53.5596
21.8999996	54.5
21.9200001	41.3096
21.9400005	34.7978
21.9599991	24.3662
21.9799995	14.6562
22	19.8388
22.0200005	38.587
22.0400009	47.1113
22.0599995	36.8682
22.0799999	29.5166
22.1000004	22.708
22.1200008	11.4736
22.1399994	3.9228
22.1599998	1.3858
22.1800003	0.7705
22.2000008	0.2901
22.2199993	0.2128
22.2399998	0.1641
22.2600002	0.0079
22.2800007	0.0088
22.2999992	0.0078
22.3199997	0.0088
22.3400002	0.0078
22.3600006	0.0078
22.3799992	0.0078
22.3999996	0.0087
22.4200001	0.0087
22.4400005	0.0078
22.4599991	1.0322
22.4799995	1.3437
22.5	1.8213
22.5200005	3.1894
22.5400009	5.7813
22.5599995	17.459
22.5799999	58.2295
22.6000004	129.2597
22.6200008	160.3985
22.6399994	123.8252
22.6599998	99.3692
22.6800003	80.1269
22.7000008	42.0556
22.7199993	14.6446
22.7399998	5.04
22.7600002	2.7159
22.7800007	1.0137
22.7999992	0.7373
22.8199997	0.5606
22.8400002	0.0078
22.8600006	0.0078
22.8799992	0.2529
22.8999996	0.3232
22.9200001	0.4307
22.9400005	0.7334
22.9599991	1.1905
22.9799995	3.0996
23	10.7539
23.0200005	27.6006
23.0400009	40.8379
23.0599995	34.3857
23.0799999	25.9609
23.1000004	22.6738
23.1200008	14.3018
23.1399994	6.209
23.1599998	3.5068
23.1800003	3.3838
23.2000008	2.4658
23.2199993	1.8389
23.2399998	1.5898
23.2600002	0.915
23.2800007	0.3691
23.2999992	0.124
23.3199997	0.0595
23.3400002	0.0254
23.3600006	0.0214
23.3799992	0.0176
23.3999996	0.0078
23.4200001	0.0078
23.4400005	0.0078
23.4599991	0.0078
23.4799995	0.0078
23.5	0.0078
23.5200005	0.0078
23.5400009	0.0078
23.5599995	0.0078
23.5799999	0.2129
23.6000004	0.2754
23.6200008	0.3711
23.6399994	0.6425
23.6599998	1.1709
23.6800003	3.5567
23.7000008	11.7549
23.7199993	25.6768
23.7399998	31.0879
23.7600002	23.2236
23.7800007	18.666
23.7999992	16.1523
23.8199997	9.0879
23.8400002	3.29
23.8600006	1.1005
23.8799992	0.5654
23.8999996	0.2159
23.9200001	0.1582
23.9400005	0.1211
23.9599991	0.0087
23.9799995	0.831
24	1.0674
24.0200005	1.4267
24.0400009	2.4199
24.0599995	3.8975
24.0799999	9.9385
24.1000004	34.5156
24.1200008	90.1397
24.1399994	136.0957
24.1599998	114.3301
24.1800003	83.4981
24.2000008	76.6572
24.2199993	53.2636
24.2399998	22.6455
24.2600002	7.2715
24.2800007	3.0322
24.2999992	1.081
24.3199997	0.7539
