# Lines beginning with `#' are comments and are ignored.
# Blank lines are significant: do not add or remove!
# _database_code_amcsd 0009325
#
# sg, abc, angles.
2       13.44 13.442 14.26    107.272 97.8170 96.660
# ctl, extra.
0.25 0.75 0.875	0.5 1.0
# limits.
--

# rad/asf, n, limits, comb.
# rads: (1.6 1) -> (1.088 1.26).
Zr6_O20	2	--	--
# zooms.
1.6:0-0
# comb, bound.
#0@c1	0	0	0.14784
#1@e1	0.30624	0	0.25

# 2theta, fwhm, hkl, mult, val.
25.59	0.2	0 1 2	6	61.91
35.17	0.2	1 0 4	6	96.62
37.80	0.2	1 1 0	6	44.59
43.38	0.2	1 1 3	12	99.82
46.21	0.2	2 0 2	6	1.46
52.58	0.2	0 2 4	6	50.05
57.54	0.2	1 1 6	12	100.00
59.78	0.2	2 1 1	12	2.60
61.17	0.2	1 2 2	12	3.30
61.35	0.2	0 1 8	6	7.58
66.56	0.2	2 1 4	12	39.66
68.25	0.2	3 0 0	6	61.31
70.46	0.2	1 2 5	12	1.31
74.36	0.2	2 0 8	6	1.52
76.94	0.2	1 0 10	6	17.73
77.30	0.2	1 1 9	12	9.57
80.75	0.2	2 2 0	6	2.29
84.41	0.2	2 2 3	12	1.91
86.41	0.2	3 1 2	12	1.40
86.57	0.2	1 2 8	12	3.00
89.07	0.2	0 2 10	6	8.37

#spectrum
3.000 	0.03610
3.020 	0.03710
3.040 	0.03710
3.060 	0.03710
3.080 	0.03620
3.100 	0.03720
3.120 	0.03710
3.140 	0.03710
3.160 	0.03720
3.180 	0.03710
3.200 	0.03710
3.220 	0.03710
3.240 	0.03710
3.260 	0.03710
3.280 	0.03710
3.300 	0.03620
3.320 	0.03710
3.340 	0.03620
3.360 	0.03610
3.380 	0.03710
3.400 	0.03710
3.420 	0.03710
3.440 	0.03610
3.460 	0.03710
3.480 	0.03710
3.500 	0.03710
3.520 	0.03710
3.540 	0.03720
3.560 	0.03710
3.580 	0.03710
3.600 	0.03720
3.620 	0.03710
3.640 	0.03710
3.660 	0.03710
3.680 	0.03710
3.700 	0.03720
3.720 	0.03710
3.740 	0.03710
3.760 	0.03710
3.780 	0.03720
3.800 	0.03720
3.820 	0.03610
3.840 	0.03710
3.860 	0.03620
3.880 	0.03620
3.900 	0.03610
3.920 	0.03710
3.940 	0.03610
3.960 	0.03710
3.980 	0.03610
4.000 	0.03610
4.020 	0.03710
4.040 	0.03610
4.060 	0.03710
4.080 	0.03710
4.100 	0.03710
4.120 	0.03620
4.140 	0.03610
4.160 	0.03620
4.180 	0.03620
4.200 	0.03610
4.220 	0.03620
4.240 	0.03710
4.260 	0.03710
4.280 	0.03610
4.300 	0.03610
4.320 	0.03610
4.340 	0.03710
4.360 	0.03620
4.380 	0.03710
4.400 	0.03610
4.420 	0.03610
4.440 	0.03710
4.460 	0.03710
4.480 	0.03710
4.500 	0.03620
4.520 	0.03610
4.540 	0.03710
4.560 	0.03620
4.580 	0.03710
4.600 	0.03710
4.620 	0.03610
4.640 	0.03710
4.660 	0.03610
4.680 	0.03620
4.700 	0.03620
4.720 	0.03710
4.740 	0.03720
4.760 	0.03710
4.780 	0.03610
4.800 	0.03610
4.820 	0.03610
4.840 	0.03710
4.860 	0.03610
4.880 	0.03620
4.900 	0.03610
4.920 	0.03710
4.940 	0.03710
4.960 	0.03610
4.980 	0.03610
5.000 	0.03710
5.020 	0.03610
5.040 	0.03610
5.060 	0.03610
5.080 	0.03710
5.100 	0.03620
5.120 	0.03610
5.140 	0.03620
5.160 	0.03620
5.180 	0.03610
5.200 	0.03710
5.220 	0.03610
5.240 	0.03610
5.260 	0.03620
5.280 	0.03620
5.300 	0.03710
5.320 	0.03610
5.340 	0.03520
5.360 	0.03610
5.380 	0.03610
5.400 	0.03610
5.420 	0.03710
5.440 	0.03620
5.460 	0.03610
5.480 	0.03610
5.500 	0.03620
5.520 	0.03620
5.540 	0.03610
5.560 	0.03610
5.580 	0.03610
5.600 	0.03610
5.620 	0.03520
5.640 	0.03610
5.660 	0.03610
5.680 	0.03620
5.700 	0.03510
5.720 	0.03610
5.740 	0.03610
5.760 	0.03510
5.780 	0.03610
5.800 	0.03610
5.820 	0.03620
5.840 	0.03610
5.860 	0.03620
5.880 	0.03610
5.900 	0.03520
5.920 	0.03510
5.940 	0.03620
5.960 	0.03610
5.980 	0.03620
6.000 	0.03610
6.020 	0.03620
6.040 	0.03510
6.060 	0.03610
6.080 	0.03610
6.100 	0.03610
6.120 	0.03510
6.140 	0.03610
6.160 	0.03520
6.180 	0.03610
6.200 	0.03620
6.220 	0.03620
6.240 	0.03610
6.260 	0.03610
6.280 	0.03510
6.300 	0.03610
6.320 	0.03610
6.340 	0.03610
6.360 	0.03620
6.380 	0.03520
6.400 	0.03610
6.420 	0.03610
6.440 	0.03810
6.460 	0.03910
6.480 	0.03810
6.500 	0.04010
6.520 	0.04590
6.540 	0.06740
6.560 	5.36040
6.580 	9.67680
6.600 	12.72260
6.620 	17.32910
6.640 	26.90040
6.660 	65.09480
6.680 	239.38280
6.700 	724.50390
6.720 	1332.16310
6.740 	1345.58010
6.760 	760.10550
6.780 	264.26070
6.800 	73.36820
6.820 	31.07320
6.840 	22.18650
6.860 	18.80760
6.880 	12.44920
6.900 	15.81050
6.920 	48.58890
6.940 	174.95800
6.960 	435.37790
6.980 	624.12400
7.000 	490.98530
7.020 	223.97950
7.040 	67.88580
7.060 	20.26180
7.080 	9.85650
7.100 	6.65240
7.120 	4.91700
7.140 	1.46680
7.160 	0.03520
7.180 	0.03510
7.200 	0.03520
7.220 	0.03420
7.240 	0.03520
7.260 	0.03520
7.280 	0.03510
7.300 	0.03520
7.320 	0.03610
7.340 	0.03510
7.360 	0.03520
7.380 	0.03510
7.400 	0.03520
7.420 	0.03510
7.440 	0.03520
7.460 	0.03520
7.480 	0.03520
7.500 	0.03520
7.520 	0.03510
7.540 	0.03520
7.560 	0.03510
7.580 	0.03510
7.600 	0.03510
7.620 	0.03510
7.640 	0.03520
7.660 	0.03510
7.680 	0.03520
7.700 	0.03510
7.720 	0.03520
7.740 	0.03520
7.760 	0.03520
7.780 	40.66800
7.800 	73.53220
7.820 	99.17580
7.840 	144.37890
7.860 	280.25880
7.880 	923.52730
7.900 	3178.32910
7.920 	7235.71680
7.940 	9418.71190
7.960 	6909.06640
7.980 	3030.36720
8.000 	914.06340
8.020 	284.04780
8.040 	143.79200
8.060 	98.16110
8.080 	72.80770
8.100 	21.80660
8.120 	0.03520
8.140 	0.03420
8.160 	0.03420
8.180 	0.03420
8.200 	0.03520
8.220 	0.03420
8.240 	0.03420
8.260 	0.03520
8.280 	0.03420
8.300 	0.03420
8.320 	0.03510
8.340 	0.03420
8.360 	0.03410
8.380 	34.05660
8.400 	61.27250
8.420 	82.62890
8.440 	120.33010
8.460 	233.99220
8.480 	769.98150
8.500 	2632.68360
8.520 	5956.84080
8.540 	7744.59860
8.560 	5759.32420
8.580 	2592.19730
8.600 	801.00000
8.620 	247.08300
8.640 	122.04980
8.660 	82.68750
8.680 	61.22270
8.700 	48.29490
8.720 	53.16110
8.740 	70.95220
8.760 	100.65620
8.780 	177.10450
8.800 	525.61920
8.820 	1880.02730
8.840 	4746.39260
8.860 	7040.66900
8.880 	5952.16800
8.900 	3028.47360
8.920 	1015.48530
8.940 	297.98920
8.960 	128.95510
8.980 	83.13380
9.000 	60.68460
9.020 	18.42090
9.040 	0.03410
9.060 	0.03420
9.080 	0.03420
9.100 	0.03420
9.120 	0.03320
9.140 	0.03420
9.160 	0.03410
9.180 	0.03410
9.200 	0.03320
9.220 	0.03420
9.240 	0.03410
9.260 	0.03410
9.280 	0.03420
9.300 	0.03320
9.320 	0.03320
9.340 	0.03410
9.360 	0.03320
9.380 	0.03420
9.400 	0.03410
9.420 	0.03410
9.440 	0.03320
9.460 	0.03420
9.480 	0.03420
9.500 	0.03420
9.520 	0.03320
9.540 	0.03320
9.560 	0.03320
9.580 	0.03420
9.600 	0.03420
9.620 	0.03320
9.640 	0.03330
9.660 	0.03320
9.680 	0.03320
9.700 	0.03320
9.720 	0.03420
9.740 	0.03320
9.760 	0.03420
9.780 	0.03320
9.800 	0.03320
9.820 	0.03420
9.840 	0.03420
9.860 	0.03420
9.880 	0.03320
9.900 	0.03320
9.920 	0.03320
9.940 	0.03320
9.960 	0.03220
9.980 	0.03320
10.000 	0.03320
10.020 	0.03220
10.040 	0.03320
10.060 	0.03420
10.080 	13.74020
10.100 	24.25690
10.120 	32.38370
10.140 	46.03520
10.160 	81.87410
10.180 	245.39750
10.200 	864.47950
10.220 	2128.68750
10.240 	3093.04200
10.260 	2646.13770
10.280 	1422.13480
10.300 	533.20600
10.320 	188.82420
10.340 	127.89360
10.360 	162.42680
10.380 	348.57520
10.400 	881.57230
10.420 	1887.40630
10.440 	3127.96190
10.460 	4210.94430
10.480 	4083.94040
10.500 	2692.44730
10.520 	1195.16410
10.540 	390.99120
10.560 	133.71190
10.580 	63.63280
10.600 	43.71980
10.620 	12.32220
10.640 	9.30070
10.660 	0.03220
10.680 	0.03220
10.700 	0.03220
10.720 	0.03320
10.740 	0.03220
10.760 	0.03220
10.780 	0.03320
10.800 	0.03320
10.820 	0.03220
10.840 	0.03230
10.860 	13.15730
10.880 	16.82320
10.900 	29.84960
10.920 	40.75000
10.940 	61.90620
10.960 	138.12210
10.980 	484.60060
11.000 	1491.21390
11.020 	2887.91890
11.040 	3243.44530
11.060 	2280.08210
11.080 	1042.40530
11.100 	338.31840
11.120 	108.02640
11.140 	53.61040
11.160 	36.42670
11.180 	11.40620
11.200 	8.60160
11.220 	0.03220
11.240 	0.03230
11.260 	0.03220
11.280 	0.03230
11.300 	0.03220
11.320 	0.03230
11.340 	0.03220
11.360 	0.03230
11.380 	0.03220
11.400 	0.03230
11.420 	0.03220
11.440 	0.03220
11.460 	0.03220
11.480 	2.77830
11.500 	4.82330
11.520 	6.39840
11.540 	8.98630
11.560 	15.32130
11.580 	43.32230
11.600 	153.52740
11.620 	392.79200
11.640 	600.60250
11.660 	547.85160
11.680 	328.68560
11.700 	132.00290
11.720 	40.67780
11.740 	14.83010
11.760 	8.57710
11.780 	6.11130
11.800 	1.96580
11.820 	0.03220
11.840 	0.03120
11.860 	0.03220
11.880 	0.03220
11.900 	0.03120
11.920 	0.03130
11.940 	0.03120
11.960 	0.03130
11.980 	0.03230
12.000 	0.03220
12.020 	0.03120
12.040 	0.03220
12.060 	0.03220
12.080 	0.03120
12.100 	0.03220
12.120 	0.03130
12.140 	0.03130
12.160 	0.03130
12.180 	0.03130
12.200 	0.03120
12.220 	0.03120
12.240 	0.03120
12.260 	0.03130
12.280 	0.03120
12.300 	0.03130
12.320 	0.03030
12.340 	0.03130
12.360 	0.03230
12.380 	0.03120
12.400 	0.03220
12.420 	0.03120
12.440 	0.03030
12.460 	0.03130
12.480 	0.03030
12.500 	0.03130
12.520 	0.03130
12.540 	0.03120
12.560 	0.03020
12.580 	0.03130
12.600 	0.03120
12.620 	0.03030
12.640 	0.03120
12.660 	0.10740
12.680 	0.12790
12.700 	0.20120
12.720 	0.26070
12.740 	0.37690
12.760 	0.77050
12.780 	2.57130
12.800 	7.95800
12.820 	15.75000
12.840 	18.26470
12.860 	13.88480
12.880 	7.28020
12.900 	2.67090
12.920 	0.85060
12.940 	0.38470
12.960 	0.25880
12.980 	0.10450
13.000 	0.08490
13.020 	0.03020
13.040 	0.76660
13.060 	0.97070
13.080 	1.67090
13.100 	2.26560
13.120 	3.40920
13.140 	7.46680
13.160 	25.81830
13.180 	78.83210
13.200 	151.50690
13.220 	170.66110
13.240 	128.36430
13.260 	67.94330
13.280 	25.43360
13.300 	9.06540
13.320 	13.57320
13.340 	19.44040
13.360 	26.28320
13.380 	49.82030
13.400 	117.62500
13.420 	291.24030
13.440 	700.39060
13.460 	1361.46380
13.480 	1708.52640
13.500 	1405.00100
13.520 	832.01270
13.540 	344.05760
13.560 	111.02540
13.580 	43.91600
13.600 	28.45700
13.620 	23.77340
13.640 	20.93550
13.660 	53.24800
13.680 	162.96580
13.700 	314.01170
13.720 	354.71680
13.740 	272.99510
13.760 	150.33590
13.780 	61.12990
13.800 	25.17480
13.820 	24.64160
13.840 	43.25100
13.860 	126.16010
13.880 	322.05270
13.900 	528.23430
13.920 	575.23250
13.940 	609.37980
13.960 	821.12600
13.980 	1038.19240
14.000 	926.75190
14.020 	621.15140
14.040 	302.27540
14.060 	131.09470
14.080 	143.27340
14.100 	284.07040
14.120 	405.49320
14.140 	364.10740
14.160 	242.99710
14.180 	112.71380
14.200 	38.21870
14.220 	12.77150
14.240 	6.56840
14.260 	4.45900
14.280 	1.52540
14.300 	1.12410
14.320 	1.47950
14.340 	1.89740
14.360 	3.45710
14.380 	4.74800
14.400 	7.56930
14.420 	18.40040
14.440 	64.07920
14.460 	177.80170
14.480 	304.87990
14.500 	320.51860
14.520 	248.61720
14.540 	142.10350
14.560 	60.76080
14.580 	22.08690
14.600 	8.90620
14.620 	4.90630
14.640 	1.85740
14.660 	1.36620
14.680 	0.15630
14.700 	0.12500
14.720 	0.02830
14.740 	0.02830
14.760 	0.02830
14.780 	0.02930
14.800 	0.02930
14.820 	0.02840
14.840 	0.02830
14.860 	0.02930
14.880 	0.02830
14.900 	0.02930
14.920 	0.02830
14.940 	0.02830
14.960 	0.02930
14.980 	0.02930
15.000 	0.03130
15.020 	0.04100
15.040 	0.05670
15.060 	0.06940
15.080 	0.06440
15.100 	0.05280
15.120 	0.04000
15.140 	0.03130
15.160 	0.02930
15.180 	0.02730
15.200 	0.02830
15.220 	0.02740
15.240 	0.02830
15.260 	0.02830
15.280 	0.02740
15.300 	0.02830
15.320 	0.02840
15.340 	0.16900
15.360 	0.26660
15.380 	0.41120
15.400 	0.57120
15.420 	0.81340
15.440 	1.51950
15.460 	5.69530
15.480 	16.17680
15.500 	34.57810
15.520 	46.23830
15.540 	43.92090
15.560 	37.89940
15.580 	51.49910
15.600 	116.59170
15.620 	206.57030
15.640 	221.87210
15.660 	172.17090
15.680 	103.47660
15.700 	43.40630
15.720 	14.10740
15.740 	5.56150
15.760 	3.39550
15.780 	1.27630
15.800 	1.06940
15.820 	0.62500
15.840 	2.11030
15.860 	5.84870
15.880 	9.92770
15.900 	10.33790
15.920 	8.00680
15.940 	5.12600
15.960 	2.80470
15.980 	2.54000
16.000 	6.62400
16.020 	21.51660
16.040 	43.33010
16.060 	52.50200
16.080 	44.00390
16.100 	31.33400
16.120 	21.98240
16.140 	36.45600
16.160 	98.56250
16.180 	182.87900
16.200 	199.78320
16.220 	156.96870
16.240 	98.79880
16.260 	43.43160
16.280 	14.17380
16.300 	5.23820
16.320 	3.04590
16.340 	1.08300
16.360 	0.81740
16.380 	0.10360
16.400 	0.13190
16.420 	0.18550
16.440 	0.38090
16.460 	1.24320
16.480 	3.66700
16.500 	6.77540
16.520 	7.31830
16.540 	5.75790
16.560 	3.68360
16.580 	1.67960
16.600 	0.58690
16.620 	0.26460
16.640 	0.19530
16.660 	0.71780
16.680 	0.97850
16.700 	1.92570
16.720 	3.75300
16.740 	7.10940
16.760 	14.99800
16.780 	39.59370
16.800 	81.87020
16.820 	102.37110
16.840 	85.54390
16.860 	60.05760
16.880 	31.00590
16.900 	11.13580
16.920 	3.68070
16.940 	1.82810
16.960 	1.37700
16.980 	0.62200
17.000 	0.64350
17.020 	0.45510
17.040 	0.83300
17.060 	3.91400
17.080 	10.16410
17.100 	21.47080
17.120 	28.69050
17.140 	28.24220
17.160 	31.58590
17.180 	59.93260
17.200 	152.25000
17.220 	284.27150
17.240 	362.13770
17.260 	424.83100
17.280 	465.40040
17.300 	424.74520
17.320 	340.14450
17.340 	224.80460
17.360 	126.80760
17.380 	56.24510
17.400 	21.25480
17.420 	9.11720
17.440 	3.83110
17.460 	2.65820
17.480 	0.67080
17.500 	0.51270
17.520 	0.02540
17.540 	0.02530
17.560 	0.02540
17.580 	0.82420
17.600 	1.07520
17.620 	1.83880
17.640 	2.67080
17.660 	5.24410
17.680 	17.03720
17.700 	54.65910
17.720 	112.70900
17.740 	133.68360
17.760 	109.07030
17.780 	78.28320
17.800 	41.41890
17.820 	15.07320
17.840 	4.97260
17.860 	2.44430
17.880 	1.66890
17.900 	0.60550
17.920 	0.46090
17.940 	0.02540
17.960 	0.02540
17.980 	0.02440
18.000 	0.02540
18.020 	0.02540
18.040 	0.02440
18.060 	0.02440
18.080 	0.29980
18.100 	0.37890
18.120 	0.62500
18.140 	0.84860
18.160 	1.31150
18.180 	3.10550
18.200 	10.81150
18.220 	30.27150
18.240 	51.08010
18.260 	50.34770
18.280 	39.12790
18.300 	26.66990
18.320 	12.66800
18.340 	4.27340
18.360 	1.53420
18.380 	0.86720
18.400 	0.31830
18.420 	0.23830
18.440 	0.18750
18.460 	0.02440
18.480 	0.02350
18.500 	0.02440
18.520 	0.02450
18.540 	0.02450
18.560 	0.02440
18.580 	0.02340
18.600 	0.02340
18.620 	0.02440
18.640 	0.02340
18.660 	0.02350
18.680 	0.05860
18.700 	0.06930
18.720 	0.10050
18.740 	0.12990
18.760 	0.19920
18.780 	0.48920
18.800 	1.65140
18.820 	4.22070
18.840 	6.37210
18.860 	5.77930
18.880 	4.46590
18.900 	3.01170
18.920 	1.39450
18.940 	0.47560
18.960 	0.19040
18.980 	0.12110
19.000 	0.05760
19.020 	2.51470
19.040 	3.18160
19.060 	4.20700
19.080 	8.55760
19.100 	12.71190
19.120 	27.57420
19.140 	89.26750
19.160 	256.48250
19.180 	463.97850
19.200 	517.41400
19.220 	512.04200
19.240 	496.56250
19.260 	349.51270
19.280 	212.75390
19.300 	129.49900
19.320 	62.54390
19.340 	23.81060
19.360 	19.76570
19.380 	40.83010
19.400 	72.23630
19.420 	81.14550
19.440 	63.70510
19.460 	48.83500
19.480 	29.04300
19.500 	12.24800
19.520 	5.15430
19.540 	2.97460
19.560 	2.12890
19.580 	1.11620
19.600 	0.63970
19.620 	0.16010
19.640 	0.58690
19.660 	0.80170
19.680 	1.17770
19.700 	1.83690
19.720 	2.69140
19.740 	6.28520
19.760 	20.06340
19.780 	51.12800
19.800 	80.34280
19.820 	86.69340
19.840 	96.91410
19.860 	96.43650
19.880 	69.66210
19.900 	53.55170
19.920 	47.82910
19.940 	37.11040
19.960 	23.91120
19.980 	17.23150
20.000 	11.08010
20.020 	4.55670
20.040 	1.64070
20.060 	0.63960
20.080 	0.46290
20.100 	0.46390
20.120 	1.07220
20.140 	2.92670
20.160 	4.22560
20.180 	4.15720
20.200 	4.91110
20.220 	6.71680
20.240 	13.92190
20.260 	35.14060
20.280 	76.90720
20.300 	119.90330
20.320 	128.13870
20.340 	129.66110
20.360 	123.66310
20.380 	84.73730
20.400 	52.76070
20.420 	32.37210
20.440 	15.08980
20.460 	5.15720
20.480 	2.33300
20.500 	1.98440
20.520 	2.56640
20.540 	5.33500
20.560 	6.66600
20.580 	5.47360
20.600 	4.31540
20.620 	3.07030
20.640 	1.45020
20.660 	0.49420
20.680 	0.21100
20.700 	0.19140
20.720 	0.15430
20.740 	0.18170
20.760 	0.26070
20.780 	1.26850
20.800 	2.56450
20.820 	5.55270
20.840 	10.41600
20.860 	13.81940
20.880 	17.68660
20.900 	37.19720
20.920 	84.87110
20.940 	128.10750
20.960 	122.40040
20.980 	113.78900
21.000 	109.71190
21.020 	79.35250
21.040 	51.13180
21.060 	34.74120
21.080 	21.21290
21.100 	10.52540
21.120 	5.12790
21.140 	2.45800
21.160 	0.76960
21.180 	0.38380
21.200 	0.25690
21.220 	0.08400
21.240 	0.03520
21.260 	0.03130
21.280 	0.02050
21.300 	0.02050
21.320 	0.01950
21.340 	0.01950
21.360 	0.01960
21.380 	0.01950
21.400 	0.02050
21.420 	0.01950
21.440 	0.01950
21.460 	0.01950
21.480 	0.02050
21.500 	0.02050
21.520 	0.02050
21.540 	0.01950
21.560 	0.02540
21.580 	0.92870
21.600 	1.36820
21.620 	1.91790
21.640 	3.11040
21.660 	6.02350
21.680 	11.77540
21.700 	38.85160
21.720 	105.58890
21.740 	192.20900
21.760 	220.62800
21.780 	226.25880
21.800 	315.47950
21.820 	498.30560
21.840 	698.93940
21.860 	761.23430
21.880 	611.79010
21.900 	460.38080
21.920 	329.45610
21.940 	166.83200
21.960 	60.80560
21.980 	21.94630
22.000 	12.85450
22.020 	6.39840
22.040 	4.46290
22.060 	4.91020
22.080 	8.56930
22.100 	26.38970
22.120 	55.17780
22.140 	70.39740
22.160 	64.20900
22.180 	52.57610
22.200 	39.23830
22.220 	23.58890
22.240 	10.93260
22.260 	4.42190
22.280 	2.45610
22.300 	2.16110
22.320 	2.46280
22.340 	4.37790
22.360 	14.05850
22.380 	43.65530
22.400 	83.43650
22.420 	90.09180
22.440 	71.56830
22.460 	63.46970
22.480 	52.35060
22.500 	52.06550
22.520 	91.73050
22.540 	136.66020
22.560 	121.06250
22.580 	90.53320
22.600 	78.45020
22.620 	51.49220
22.640 	27.32710
22.660 	32.08500
22.680 	74.39160
22.700 	124.13770
22.720 	121.28810
22.740 	95.07520
22.760 	98.54790
22.780 	109.55280
22.800 	101.78020
22.820 	71.21090
22.840 	52.53030
22.860 	43.06840
22.880 	25.03120
22.900 	9.71780
22.920 	3.62690
22.940 	3.61530
22.960 	7.05270
22.980 	12.60650
23.000 	13.17090
23.020 	10.40140
23.040 	11.81250
23.060 	15.20410
23.080 	17.15140
23.100 	18.07320
23.120 	17.54890
23.140 	13.81740
23.160 	10.40330
23.180 	7.18260
23.200 	3.65230
23.220 	1.62010
23.240 	0.72760
23.260 	0.96970
23.280 	0.93450
23.300 	1.12690
23.320 	1.85060
23.340 	3.02440
23.360 	8.29590
23.380 	28.33010
23.400 	69.64940
23.420 	97.99120
23.440 	79.65340
23.460 	61.53130
23.480 	58.57710
23.500 	44.12010
23.520 	27.12210
23.540 	16.72070
23.560 	13.95020
23.580 	17.03120
23.600 	37.12890
23.620 	98.80470
23.640 	175.14840
23.660 	172.11520
23.680 	124.24120
23.700 	110.56540
23.720 	90.88570
23.740 	55.40630
23.760 	30.69920
23.780 	18.09860
23.800 	13.22170
23.820 	11.07710
23.840 	8.30370
23.860 	10.08690
23.880 	13.41990
23.900 	14.94920
23.920 	23.12110
23.940 	40.36230
23.960 	55.86630
23.980 	89.24020
24.000 	174.91410
24.020 	234.69140
24.040 	184.93940
24.060 	136.81150
24.080 	122.84860
24.100 	79.64650
24.120 	33.30760
24.140 	11.99220
24.160 	5.85740
24.180 	2.86920
24.200 	2.74510
24.220 	4.03810
24.240 	10.54100
24.260 	32.18460
24.280 	60.63870
24.300 	62.18360
24.320 	44.15230
24.340 	38.35840
24.360 	32.48830
24.380 	19.95310
24.400 	14.76070
24.420 	15.73240
24.440 	12.86330
24.460 	11.13280
24.480 	15.30760
24.500 	30.53510
24.520 	59.98040
24.540 	75.66020
24.560 	59.93070
24.580 	57.42780
24.600 	79.08490
24.620 	86.85450
24.640 	62.83400
24.660 	40.95900
24.680 	36.57520
24.700 	26.68650
24.720 	12.39160
24.740 	4.40330
24.760 	1.90040
24.780 	2.99610
24.800 	3.79690
24.820 	6.25390
24.840 	15.20410
24.860 	35.05670
24.880 	68.15330
24.900 	133.65140
24.920 	246.01270
24.940 	287.05080
24.960 	207.83980
24.980 	162.05760
25.000 	148.57610
25.020 	94.65430
25.040 	51.69430
25.060 	61.04000
25.080 	106.47470
25.100 	144.53810
25.120 	203.89550
25.140 	275.88770
25.160 	263.00100
25.180 	241.24130
25.200 	283.20610
25.220 	332.75580
25.240 	310.20410
25.260 	212.50980
25.280 	157.82230
25.300 	140.44530
25.320 	96.00090
25.340 	49.51560
25.360 	28.18360
25.380 	35.75000
25.400 	52.11920
25.420 	49.66700
25.440 	32.65920
25.460 	26.11320
25.480 	23.78130
25.500 	13.66790
25.520 	5.18950
25.540 	2.10060
25.560 	1.67190
25.580 	3.10930
25.600 	8.75200
25.620 	16.31150
25.640 	17.79790
25.660 	13.17970
25.680 	12.34670
25.700 	13.47750
25.720 	13.73740
25.740 	28.34670
25.760 	85.34670
25.780 	178.91410
25.800 	212.54690
25.820 	163.80860
25.840 	132.59570
25.860 	124.26170
25.880 	93.21190
25.900 	71.81730
25.920 	86.48240
25.940 	99.89550
25.960 	79.75490
25.980 	62.67870
26.000 	67.56930
26.020 	89.32520
26.040 	154.86920
26.060 	242.90430
26.080 	242.01270
26.100 	170.08890
26.120 	146.29590
26.140 	137.98830
26.160 	94.43270
26.180 	89.31740
26.200 	197.18850
26.220 	369.17680
26.240 	386.94430
